File: Automationdashboard/log_modechange.csv
id,timestamp,localtime,percentage_of_can_ids,MotorSpeed_340920578,PackCurr_6,PackVol_6,Throttle_408094978,SOC_8,DchgFetStatus_9,DchgOverTempProt_9,DchgUnderTempProt_9,PackUnderVolProt_9,PackOverVolProt_9,DchgOverCurrProt_9,CellOverVolProt_9,ChgPeakProt_9,FetFailure_9,IgnitionStatus_12,Throttle_Error_408094978,DriveError_Motor_hall_408094978,Motor_Stalling_408094978,Motor_Phase_loss_408094978,Controller_Over_Temeprature_408094978,Motor_Over_Temeprature_408094978,Overcurrent_Fault_408094978,DriveError_Controller_OverVoltag_408094978,Controller_Undervoltage_408094978,MOSFET_Protection_408094978,BatteryVoltage_340920578,BatteryCurrent_340920578,AC_Current_340920579,AC_Voltage_340920580,CellUnderVolWarn_9,Dchg_Accumulative_Ah_14,ChargerType_12,CellVol02_1,PcbTemp_12,Reverse_Pulse_408094978,LatchProtection_12,Temp6_10,Temp3_10,ForwardParking_Mode_Ack_408094978,CellOverDevProt_9,AvgCellVol_5,MinVoltId_5,DriveStatus1_Ride_418513673,LoadDetection_12,Set_Regen_418513673,number_of_records,ChgOverCurrProt_9,BuzzerStatus_12,MinCellVol_5,CellVol04_1,CellOverVolWarn_9,CellVol08_2,CellBalFeatureStatus_12,Temp2_10,CellUnderVolProt_9,Temp8_10,Hill_hold_Ack_408094978,CellVol06_2,AfeTemp_12,LatchType_12,DI1_12,Wakeup_Ack_408094978,PreChgFetStatus_9,DchgOverTempWarn_9,MCU_ID_408094979,BMS_Serial_No_MUX_11,Temp1_10,DriveStatus2_Reverse_Request_418513673,Mode_Ack_408094978,ModeR_Pulse_408094978,VCU_ID_418513673,ResSocProt_9,CellVol12_3,HwVer_13,Temp4_10,Side_Stand_Ack_408094978,DchgUnderTempWarn_9,ChgFetStatus_9,ImmoChg_12,timestamp,ChargeSOP_16,BMS_Serial_No__1_7_11,FWSubVer_13,CellVol05_2,ShortCktProt_9,DO2_12,BattLowSocWarn_9,ChgUnderTempWarn_9,BmsStatus_8,ChgOverTempProt_9,InternalFWSubVer_21,Chg_Accumulative_Ah_14,Park_Pulse_408094978,CellVol16_4,CellVol07_2,InternalFWVer_21,sequence,CellVol01_1,LedStatus_9,MaxTempId_7,CellVol15_4,CellVol09_3,DschgPeakProt_9,Motor_Temperature_408094979,_3v3Vol_15,ChargerDetection_12,Actual_SoC_18,SOCAh_8,Usable_Capacity_Ah_18,BMS_Serial_No_Bytes_8_14_11,Mode_Request_418513673,PackOverVolWarn_9,Temp7_10,ChgOverTempWarn_9,SOH_8,Temp5_10,MaxCellVol_5,Direction_Ack_408094978,DC_Current_Limit_418513673,Ride_Ack_408094978,MaxVoltId_5,BMS_Serial_No__15_11,_12vVol_15,MCU_Fault_Code_408094979,CycleCount_7,MCU_Temperature_408094979,TempSenseFault_9,Hill_Hold_418513673,MinTemp_7,CellVol13_4,DchgSOP_16,Drive_418513673,CellVol14_4,FetTemp_8,WakeUp_Request_418513673,PackUnderVolWarn_9,CellVol10_3,ConfigVer_21,FetTempProt_9,number_of_can_ids,ChgAuth_9,Brake_Pulse_408094978,CellVol03_1,ForwardPark_Request_418513673,CanCommDetection_12,DriveStatus_Regenerative_Braking_408094978,MinTempId_7,ResStatus_9,ModeL_Pulse_408094978,CellVolMinMaxDev_7,ImmoDchg_12,CellChemType_12,ChgUnderTempProt_9,CellVol11_3,MaxTemp_7,RefVol_15,_5vVol_15,DO1_12,SideStand_Pulse_408094978,FwVer_13,DI2_12,ActiveCellBalStatus_9
4,1710382463678,14/03/2024 07:44:23.678,25.0,1008,,,96,,,,,,,,,,,,0,0,0,0,0,0,0,1,0,0,5.1,0.0,0.0,0.0,,,,3.248,,0,,,,0,,,,,,,6,,,,3.245,,,,,,,0,,,,,1,,,260,,,,1,0,,,,,,0,,,,1710382463678,,,,,,,,,,,,,0,,,,25209,3.248,,,,,,100,,,,,,,,,,,,,,0,,1,,,,0,,60,,,,,,,,,,,,,,6,,0,3.246,,,0,,,0,,,,,,,,,,0,,,
4,1710382460618,14/03/2024 07:44:20.618,91.6667,1346,-0.307,51.914,0,25,1,0,0,0,0,0,0,1,0,1,0,0,0,0,0,0,0,1,0,0,5.1,0.0,0.0,0.0,0,1461874,2,3.246,61,0,0,41,40,0,0,3.244,7,,0,,27,0,0,3.241,3.243,0,3.241,0,40,0,40,0,3.245,63,0,0,1,0,0,260,,38,,1,0,,0,3.246,5718322,40,0,0,0,0,1710382460618,20000,,12337,3.247,0,0,0,0,33,0,12854,1489.524,0,3.243,3.241,3354936,24170,3.246,0,6,3.247,3.243,0,100,3.268,0,2579.04,10.213,37.2,,,0,40,0,99,39,3.248,0,,1,14,,12.178,0,49,60,0,,38,3.244,68242,,3.248,62,,0,3.247,4272433,0,22,1,0,3.244,,1,0,1,0,0,0.007,0,2,0,3.243,41,5.05,5.028,0,0,4469048,0,0
4,1710382457606,14/03/2024 07:44:17.606,91.6667,2422,-0.378,51.876,0,25,1,0,0,0,0,0,0,1,0,1,0,0,0,0,0,0,0,1,0,0,5.1,0.0,0.0,0.0,0,1461874,2,3.244,61,0,0,41,40,0,0,3.242,7,,0,,27,0,0,3.238,3.241,0,3.239,0,40,0,40,0,3.243,63,0,0,1,0,0,260,,38,,1,0,,0,3.243,5718322,40,0,0,0,0,1710382457606,20000,,12337,3.245,0,0,0,0,33,0,12854,1489.524,0,3.24,3.238,3354936,23138,3.243,0,6,3.244,3.24,0,101,3.293,0,2579.04,10.213,37.2,,,0,40,0,99,39,3.246,0,,1,14,,12.178,0,49,60,0,,38,3.242,68242,,3.246,63,,0,3.245,4272433,0,22,1,0,3.242,,1,0,1,0,0,0.008,0,2,0,3.241,41,5.058,5.068,0,0,4469048,0,0
4,1710382454618,14/03/2024 07:44:14.618,91.6667,2542,-0.307,51.835,0,25,1,0,0,0,0,0,0,1,0,1,0,0,0,0,0,0,0,1,0,0,5.1,0.0,0.0,0.0,0,1461874,2,3.241,60,0,0,41,40,0,0,3.239,7,,0,,27,0,0,3.236,3.238,0,3.236,0,40,0,40,0,3.24,63,0,0,1,0,0,260,,38,,1,0,,0,3.241,5718322,40,0,0,0,0,1710382454618,20000,,12337,3.242,0,0,0,0,33,0,12854,1489.524,0,3.238,3.236,3354936,22106,3.241,0,6,3.242,3.238,0,101,3.293,0,2579.04,10.213,37.2,,,0,40,0,99,39,3.243,0,,1,14,,12.178,0,49,60,0,,38,3.239,68242,,3.243,63,,0,3.242,4272433,0,22,1,0,3.24,,1,0,1,0,0,0.007,0,2,0,3.238,41,5.063,5.065,0,0,4469048,0,0
4,1710382451618,14/03/2024 07:44:11.618,91.6667,2689,-0.378,51.79,0,25,1,0,0,0,0,0,0,1,0,1,0,0,0,0,0,0,0,1,0,0,5.1,0.0,0.0,0.0,0,1461874,2,3.238,61,0,0,41,40,0,0,3.236,7,,0,,27,0,0,3.233,3.235,0,3.233,0,40,0,40,0,3.238,63,0,0,1,0,0,260,,38,,1,0,,0,3.238,5718322,40,0,0,0,0,1710382451618,20000,,12337,3.239,0,0,0,0,33,0,12854,1489.518,0,3.235,3.233,3354936,21075,3.238,0,6,3.239,3.235,0,102,3.293,0,2577.52,10.207,37.2,,,0,40,0,99,39,3.241,0,,1,14,,12.178,0,49,60,0,,38,3.237,68223,,3.241,63,,0,3.239,4272433,0,22,1,0,3.237,,1,0,1,0,0,0.008,0,2,0,3.235,41,5.07,5.065,0,0,4469048,0,0
4,1710382448618,14/03/2024 07:44:08.618,91.6667,2906,-0.225,51.735,0,25,1,0,0,0,0,0,0,1,0,1,0,0,0,0,0,0,0,1,0,0,5.1,0.0,0.0,0.0,0,1461874,2,3.235,61,0,0,41,40,0,0,3.233,7,,0,,27,0,0,3.23,3.232,0,3.23,0,40,0,40,0,3.234,63,0,0,1,0,0,260,,38,,1,0,,0,3.235,5718322,40,0,0,0,0,1710382448618,20000,,12337,3.236,0,0,0,0,33,0,12854,1489.518,0,3.232,3.23,3354936,20043,3.235,0,6,3.235,3.231,0,103,3.293,0,2577.52,10.207,37.2,,,0,40,0,99,39,3.237,0,,1,14,,12.178,0,49,60,0,,38,3.233,68223,,3.237,64,,0,3.236,4272433,0,22,1,0,3.233,,1,0,1,0,0,0.007,0,2,0,3.231,41,5.058,5.061,0,0,4469048,0,0
4,1710382445638,14/03/2024 07:44:05.638,91.6667,3153,-0.378,51.677,0,25,1,0,0,0,0,0,0,1,0,1,0,0,0,0,0,0,0,1,0,0,5.1,0.0,0.0,0.0,0,1461874,2,3.232,61,0,0,41,40,0,0,3.229,7,,0,,27,0,0,3.225,3.228,0,3.226,0,40,0,40,0,3.23,63,0,0,1,0,0,260,,38,,1,0,,0,3.231,5718322,40,0,0,0,0,1710382445638,20000,,12337,3.233,0,0,0,0,33,0,12854,1489.518,0,3.228,3.225,3354936,19016,3.231,0,6,3.232,3.227,0,103,3.294,0,2577.52,10.207,37.2,,,0,40,0,99,39,3.234,0,,1,14,,12.254,0,49,60,0,,38,3.23,68223,,3.234,64,,1,3.232,4272433,0,22,1,0,3.23,,1,0,1,0,0,0.009,0,2,0,3.228,41,5.083,5.068,0,0,4469048,0,0
4,1710382442598,14/03/2024 07:44:02.598,91.6667,3385,-0.378,51.606,0,25,1,0,0,0,0,0,0,1,0,1,0,0,0,0,0,0,0,1,0,0,5.1,0.0,0.0,0.0,1,1461874,2,3.227,61,0,0,41,40,0,0,3.225,7,,0,,22,0,0,3.221,3.224,0,3.221,0,40,0,40,0,3.226,62,0,0,1,0,0,260,,38,,1,0,,0,3.227,5718322,40,0,0,0,0,1710382442598,20000,,12337,3.228,0,0,0,0,33,0,12854,1489.518,0,3.224,3.221,3354936,17968,3.227,0,6,3.228,3.223,0,104,3.292,0,2577.52,10.207,37.2,,,0,40,0,99,39,3.229,0,,1,14,,12.178,0,49,60,0,,38,3.225,68223,,3.229,64,,1,3.228,4272433,0,22,1,0,3.225,,1,0,1,0,0,0.008,0,2,0,3.223,41,5.058,5.03,0,0,4469048,0,0
4,1710382439578,14/03/2024 07:43:59.578,91.6667,3649,-0.378,51.519,0,25,1,0,0,0,0,0,0,1,0,1,0,0,0,0,0,0,0,1,0,0,5.1,0.0,0.0,0.0,1,1461874,2,3.222,61,0,0,41,40,0,0,3.219,7,,0,,24,0,0,3.215,3.219,0,3.216,0,40,0,40,0,3.221,63,0,0,1,0,0,260,,38,,1,0,,0,3.221,5718322,40,0,0,0,0,1710382439578,20000,,12337,3.223,0,0,0,0,36,0,12854,1489.518,0,3.219,3.215,3354936,16936,3.221,0,6,3.222,3.217,0,104,3.295,0,2577.52,10.207,37.2,,,0,40,0,99,39,3.224,0,,1,14,,12.275,0,49,60,0,,38,3.219,68223,,3.224,65,,1,3.223,4272433,0,22,1,0,3.22,,1,0,1,0,0,0.009,0,2,0,3.217,41,5.085,5.07,0,0,4469048,0,0
4,1710382436558,14/03/2024 07:43:56.558,20.8333,3932,,,0,,,,,,,,,,,,0,0,0,0,0,0,0,1,0,0,5.0,0.0,0.0,0.0,,,,,,0,,,,0,,,,,,,10,,,,,,,,,,,0,,,,,1,,,260,,,,1,0,,,,,,0,,,,1710382436558,,,,,,,,,,,,,0,,,,15887,,,,,,,104,,,,,,,,,,,,,,0,,1,,,,0,,60,,,,,,,,,,,,,,5,,0,,,,0,,,0,,,,,,,,,,0,,,
4,1710382433555,14/03/2024 07:43:53.555,91.6667,4289,-31.385,50.598,17,25,1,0,0,0,0,0,0,0,0,1,0,0,0,0,0,0,0,0,0,0,4.9,29.8,38.4,3.3,1,1461870,2,3.168,60,0,0,41,40,0,0,3.162,8,,0,,27,0,0,3.146,3.161,0,3.146,0,39,0,40,0,3.165,62,0,0,1,0,0,256,,38,,1,0,,0,3.164,5718322,40,0,0,1,0,1710382433555,20000,,12337,3.171,0,0,0,0,4,0,12854,1489.518,0,3.157,3.157,3354936,14870,3.161,0,6,3.166,3.164,0,104,3.293,0,2578.53,10.211,37.2,,,0,40,0,99,39,3.171,0,,1,5,,12.178,0,49,60,0,,38,3.162,68236,,3.17,66,,1,3.166,4272433,0,22,1,0,3.162,,1,0,1,0,0,0.025,0,2,0,3.158,41,5.063,5.065,0,0,4469048,0,0
4,1710382430438,14/03/2024 07:43:50.438,91.6667,4431,-61.173,49.67,19,25,1,0,0,0,0,0,0,0,0,1,0,0,0,0,0,0,0,0,0,0,4.8,55.9,60.4,3.3,1,1461844,2,3.117,61,0,0,41,40,0,0,3.104,8,,0,,24,0,0,3.074,3.109,0,3.074,0,39,0,40,0,3.112,62,0,0,1,0,0,256,,38,,3,0,,0,3.106,5718322,40,0,0,1,0,1710382430438,20000,,12337,3.116,0,0,0,0,4,0,12854,1489.518,0,3.09,3.098,3354936,13799,3.102,0,6,3.11,3.109,0,104,3.293,0,2585.1,10.237,37.2,,,0,40,0,99,39,3.117,0,,1,2,,12.182,0,49,60,0,,38,3.103,68323,,3.114,66,,1,3.109,4272433,0,22,1,0,3.106,,1,0,1,0,0,0.043,0,2,0,3.095,41,5.06,5.065,0,0,4469048,0,0
4,1710382427433,14/03/2024 07:43:47.433,91.6667,4453,-38.43,50.025,43,25,1,0,0,0,0,0,0,0,0,1,0,0,0,0,0,0,0,0,0,0,4.8,34.7,79.6,3.0,1,1461801,2,3.135,60,0,0,41,40,0,0,3.126,8,,0,,27,0,0,3.105,3.127,0,3.105,0,39,0,40,0,3.132,62,0,0,1,0,0,256,,38,,3,0,,0,3.132,5718322,40,0,0,1,0,1710382427433,20000,,12337,3.137,0,0,0,0,4,0,12854,1489.518,0,3.11,3.12,3354936,12758,3.125,0,6,3.126,3.13,0,104,3.293,0,2595.95,10.28,37.2,,,0,40,0,99,39,3.138,0,,1,14,,12.182,0,49,60,0,,38,3.129,68465,,3.138,67,,1,3.132,4272433,0,22,1,0,3.126,,1,0,1,0,0,0.033,0,2,0,3.121,41,5.068,5.065,0,0,4469048,0,0
4,1710382424378,14/03/2024 07:43:44.378,91.6667,4451,-113.848,48.451,93,26,1,0,0,0,0,0,0,0,0,1,0,0,0,0,0,0,0,0,0,0,4.6,114.2,101.4,3.2,1,1461736,2,3.043,60,0,0,40,40,0,0,3.028,8,,0,,27,0,0,2.979,3.033,0,2.979,0,39,0,40,0,3.041,62,0,0,1,0,0,256,,38,,3,0,,0,3.035,5718322,40,0,0,1,0,1710382424378,20000,,12337,3.042,0,0,0,0,4,0,12854,1489.518,0,3.01,3.022,3354936,11705,3.011,0,3,3.04,3.044,0,103,3.293,0,2612.37,10.345,37.2,,,0,40,0,99,39,3.045,0,,1,14,,12.263,0,49,60,0,,38,3.027,70347,,3.045,66,,1,3.036,4272433,0,22,1,0,3.026,,1,0,1,0,0,0.066,0,2,0,3.017,40,5.08,5.068,0,0,4469048,0,0
4,1710382421378,14/03/2024 07:43:41.378,91.6667,4082,-114.462,48.63,92,26,1,0,0,0,0,0,0,0,0,1,0,0,0,0,0,0,0,0,0,0,4.6,115.2,93.4,3.3,0,1461640,2,3.052,60,0,0,40,40,0,0,3.039,8,,0,,27,0,0,2.993,3.043,0,2.993,0,39,0,40,0,3.046,62,0,0,1,0,0,256,,38,,3,0,,0,3.047,5718322,40,0,0,1,0,1710382421378,20000,,12337,3.056,0,0,0,0,4,0,12854,1489.518,0,3.02,3.035,3354936,10670,3.027,0,3,3.051,3.056,0,103,3.291,0,2636.61,10.441,37.2,,,0,40,0,99,39,3.056,0,,1,5,,12.173,0,49,60,0,,38,3.039,70639,,3.056,65,,1,3.045,4272433,0,22,1,0,3.038,,1,0,1,0,0,0.063,0,2,0,3.026,40,5.055,5.063,0,0,4469048,0,0
4,1710382418398,14/03/2024 07:43:38.398,95.8333,3544,-109.864,48.851,68,26,1,0,0,0,0,0,0,0,0,1,0,0,0,0,0,0,0,0,0,0,4.6,114.7,101.7,3.3,0,1461547,2,3.065,60,0,0,40,40,0,0,3.053,8,1,0,20,29,0,0,3.011,3.055,0,3.011,0,39,0,40,0,3.061,62,0,0,1,0,0,256,,38,0,3,0,0,0,3.057,5718322,40,0,0,1,0,1710382418398,20000,,12337,3.069,0,0,0,0,4,0,12854,1489.518,0,3.033,3.048,3354936,9638,3.038,0,3,3.067,3.07,0,103,3.295,0,2660.1,10.534,37.2,,3,0,40,0,99,39,3.07,0,115,1,9,,12.173,0,49,60,0,0,38,3.055,70921,4500,3.068,64,1,1,3.062,4272433,0,23,1,0,3.052,0,1,0,1,0,0,0.059,0,2,0,3.04,40,5.078,5.068,0,0,4469048,0,0
4,1710382415338,14/03/2024 07:43:35.338,95.8333,2842,-106.803,49.099,67,26,1,0,0,0,0,0,0,0,0,1,0,0,0,0,0,0,0,0,0,0,4.7,113.7,119.1,2.7,0,1461457,2,3.082,60,0,0,40,40,0,0,3.068,8,1,0,20,28,0,0,3.026,3.073,0,3.026,0,39,0,40,0,3.075,62,0,0,1,0,0,256,,38,0,3,0,0,0,3.072,5718322,40,0,0,1,0,1710382415338,20000,,12337,3.08,0,0,0,0,4,0,12854,1489.518,0,3.046,3.066,3354936,8567,3.053,0,3,3.082,3.085,0,104,3.293,0,2682.82,10.624,37.2,,3,0,40,0,99,39,3.085,0,115,1,9,,12.169,0,49,59,0,0,38,3.072,71193,4500,3.083,63,1,1,3.075,4272433,0,23,1,0,3.068,0,1,0,1,0,0,0.059,0,2,0,3.061,40,5.075,5.065,0,0,4469048,0,0
4,1710382412358,14/03/2024 07:43:32.358,20.8333,1944,,,59,,,,,,,,,,,,0,0,0,0,0,0,0,0,0,0,4.8,77.0,125.6,1.9,,,,,,0,,,,0,,,,,,,5,,,,,,,,,,,0,,,,,1,,,256,,,,3,0,,,,,,0,,,,1710382412358,,,,,,,,,,,,,0,,,,7526,,,,,,,104,,,,,,,,,,,,,,0,,1,,,,0,,59,,,,,,,,,,,,,,5,,0,,,,0,,,0,,,,,,,,,,0,,,
4,1710382409278,14/03/2024 07:43:29.278,95.8333,1133,-2.293,51.638,4,27,1,0,0,0,0,0,0,0,0,1,0,0,0,0,0,0,0,0,0,0,5.1,1.8,28.6,0.9,0,1461345,2,3.229,60,0,0,40,40,0,0,3.227,7,1,0,20,28,0,0,3.222,3.226,0,3.222,0,39,0,40,0,3.228,62,0,0,1,0,0,256,,38,0,3,0,0,0,3.228,5718322,39,0,0,1,0,1710382409278,20000,,12337,3.23,0,0,0,0,4,0,12854,1489.518,0,3.227,3.222,3354936,6478,3.229,0,3,3.231,3.225,0,104,3.295,0,2711.11,10.736,37.2,,3,0,40,0,99,39,3.233,0,115,1,14,,12.186,0,49,59,0,0,38,3.227,71533,4500,3.233,63,1,1,3.23,4272433,0,23,1,0,3.227,0,1,0,1,0,0,0.011,0,2,0,3.224,40,5.068,5.068,0,0,4469048,0,0
4,1710382406538,14/03/2024 07:43:26.538,95.8333,997,-55.203,50.691,60,27,1,0,0,0,0,0,0,0,0,1,0,0,0,0,0,0,0,0,0,0,4.9,62.1,89.5,1.1,0,1461316,2,3.171,60,0,0,40,40,0,0,3.168,8,1,0,20,27,0,0,3.149,3.164,0,3.149,0,39,0,40,0,3.174,62,0,0,1,0,0,256,,38,0,3,0,0,0,3.171,5718322,39,0,0,1,0,1710382406538,20000,,12337,3.179,0,0,0,0,4,0,12854,1489.518,0,3.155,3.169,3354936,5518,3.158,0,3,3.175,3.178,0,104,3.294,0,2718.43,10.765,37.2,,3,0,40,0,99,39,3.179,0,115,1,5,,12.169,0,49,59,0,0,38,3.17,71620,4500,3.175,62,1,1,3.174,4272433,0,23,1,0,3.163,0,1,0,1,0,0,0.03,0,2,0,3.166,40,5.075,5.065,0,0,4469048,0,0