File: Automationdashboard/relevant_data_beforefault_modified.csv
id,timestamp,localtime,percentage_of_can_ids,MotorSpeed_340920578,PackCurr_6,PackVol_6,Throttle_408094978,SOC_8,DchgFetStatus_9,DchgOverTempProt_9,DchgUnderTempProt_9,PackUnderVolProt_9,PackOverVolProt_9,DchgOverCurrProt_9,CellOverVolProt_9,ChgPeakProt_9,FetFailure_9,IgnitionStatus_12,Throttle_Error_408094978,DriveError_Motor_hall_408094978,Motor_Stalling_408094978,Motor_Phase_loss_408094978,Controller_Over_Temeprature_408094978,Motor_Over_Temeprature_408094978,Overcurrent_Fault_408094978,DriveError_Controller_OverVoltag_408094978,Controller_Undervoltage_408094978,MOSFET_Protection_408094978,BatteryVoltage_340920578,BatteryCurrent_340920578,AC_Current_340920579,AC_Voltage_340920580,CellUnderVolWarn_9,Dchg_Accumulative_Ah_14,ChargerType_12,CellVol02_1,PcbTemp_12,Reverse_Pulse_408094978,LatchProtection_12,Temp6_10,Temp3_10,ForwardParking_Mode_Ack_408094978,CellOverDevProt_9,AvgCellVol_5,MinVoltId_5,DriveStatus1_Ride_418513673,LoadDetection_12,Set_Regen_418513673,number_of_records,ChgOverCurrProt_9,BuzzerStatus_12,MinCellVol_5,CellVol04_1,CellOverVolWarn_9,CellVol08_2,CellBalFeatureStatus_12,Temp2_10,CellUnderVolProt_9,Temp8_10,Hill_hold_Ack_408094978,CellVol06_2,AfeTemp_12,LatchType_12,DI1_12,Wakeup_Ack_408094978,PreChgFetStatus_9,DchgOverTempWarn_9,MCU_ID_408094979,BMS_Serial_No_MUX_11,Temp1_10,DriveStatus2_Reverse_Request_418513673,Mode_Ack_408094978,ModeR_Pulse_408094978,VCU_ID_418513673,ResSocProt_9,CellVol12_3,HwVer_13,Temp4_10,Side_Stand_Ack_408094978,DchgUnderTempWarn_9,ChgFetStatus_9,ImmoChg_12,timestamp.1,ChargeSOP_16,BMS_Serial_No__1_7_11,FWSubVer_13,CellVol05_2,ShortCktProt_9,DO2_12,BattLowSocWarn_9,ChgUnderTempWarn_9,BmsStatus_8,ChgOverTempProt_9,InternalFWSubVer_21,Chg_Accumulative_Ah_14,Park_Pulse_408094978,CellVol16_4,CellVol07_2,InternalFWVer_21,sequence,CellVol01_1,LedStatus_9,MaxTempId_7,CellVol15_4,CellVol09_3,DschgPeakProt_9,Motor_Temperature_408094979,_3v3Vol_15,ChargerDetection_12,Actual_SoC_18,SOCAh_8,Usable_Capacity_Ah_18,BMS_Serial_No_Bytes_8_14_11,Mode_Request_418513673,PackOverVolWarn_9,Temp7_10,ChgOverTempWarn_9,SOH_8,Temp5_10,MaxCellVol_5,Direction_Ack_408094978,DC_Current_Limit_418513673,Ride_Ack_408094978,MaxVoltId_5,BMS_Serial_No__15_11,_12vVol_15,MCU_Fault_Code_408094979,CycleCount_7,MCU_Temperature_408094979,TempSenseFault_9,Hill_Hold_418513673,MinTemp_7,CellVol13_4,DchgSOP_16,Drive_418513673,CellVol14_4,FetTemp_8,WakeUp_Request_418513673,PackUnderVolWarn_9,CellVol10_3,ConfigVer_21,FetTempProt_9,number_of_can_ids,ChgAuth_9,Brake_Pulse_408094978,CellVol03_1,ForwardPark_Request_418513673,CanCommDetection_12,DriveStatus_Regenerative_Braking_408094978,MinTempId_7,ResStatus_9,ModeL_Pulse_408094978,CellVolMinMaxDev_7,ImmoDchg_12,CellChemType_12,ChgUnderTempProt_9,CellVol11_3,MaxTemp_7,RefVol_15,_5vVol_15,DO1_12,SideStand_Pulse_408094978,FwVer_13,DI2_12,ActiveCellBalStatus_9
4,1711369915351,2024-03-25 18:01:55.351,91.6667,752.0,-0.461,50.182,100.0,52.0,1.0,0.0,0.0,0.0,0.0,0.0,0.0,0.0,0.0,1.0,0.0,0.0,0.0,0.0,1.0,0.0,0.0,0.0,0.0,0.0,5.0,0.0,0.0,0.0,0.0,1235879.0,2.0,3.12,61.0,0.0,0.0,47.0,47.0,0.0,0.0,3.136,8.0,,0.0,,22,0.0,0.0,3.085,3.123,0.0,3.085,0.0,47.0,0.0,47.0,0.0,3.123,62.0,0.0,0.0,1.0,0.0,0.0,272.0,,46.0,,2.0,0.0,,0.0,3.223,5718322.0,47.0,0.0,0.0,1.0,0.0,1711369915351,255000.0,,12337.0,3.122,0.0,0.0,0.0,0.0,4.0,0.0,12854.0,1289.084,0.0,3.088,3.12,3354936.0,8430,3.102,14.0,7.0,3.126,3.136,0.0,145.0,3.3,0.0,5270.96,20.873,37.2,,,0.0,48.0,0.0,99.0,46.0,3.225,0.0,,1.0,13.0,,12.173,0.0,41.0,85.0,0.0,,46.0,3.225,60000.0,,3.124,66.0,,0.0,3.124,4272433.0,0.0,22,1.0,0.0,3.123,,1.0,0.0,1.0,0.0,0.0,0.14,0.0,2.0,0.0,3.218,48.0,5.025,5.0,0.0,0.0,4469048.0,0.0,0.0
4,1711369894000,2024-03-25 18:01:34.000,20.8333,739.0,,,78.0,,,,,,,,,,,,0.0,0.0,0.0,0.0,0.0,0.0,0.0,0.0,0.0,0.0,4.9,78.0,222.2,1.1,,,,,,0.0,,,,0.0,,,,,,,9,,,,,,,,,,,0.0,,,,,1.0,,,256.0,,,,2.0,0.0,,,,,,0.0,,,,1711369894000,,,,,,,,,,,,,0.0,,,,1008,,,,,,,124.0,,,,,,,,,,,,,,0.0,,1.0,,,,0.0,,76.0,,,,,,,,,,,,,,5,,0.0,,,,0.0,,,0.0,,,,,,,,,,0.0,,,
4,1711369872417,2024-03-25 18:01:12.417,70.8333,,-0.307,52.6,,54.0,1.0,0.0,0.0,0.0,0.0,0.0,0.0,0.0,0.0,1.0,,,,,,,,,,,,,,,0.0,1235288.0,2.0,3.287,61.0,,0.0,47.0,47.0,,0.0,3.287,16.0,,1.0,,17,0.0,0.0,3.281,3.288,0.0,3.287,0.0,47.0,0.0,47.0,,3.288,62.0,0.0,0.0,,1.0,0.0,,,46.0,,,,,0.0,3.288,5718322.0,47.0,,0.0,1.0,0.0,1711369872417,255000.0,,12337.0,3.288,0.0,0.0,0.0,0.0,1.0,0.0,12854.0,1289.084,,3.281,3.287,3354936.0,59103,3.287,0.0,7.0,3.289,3.287,0.0,,3.285,0.0,5420.2,21.464,37.2,,,0.0,48.0,0.0,99.0,45.0,3.289,,,,10.0,,12.182,,41.0,,0.0,,45.0,3.289,60000.0,,3.289,61.0,,0.0,3.289,4272433.0,0.0,17,1.0,,3.288,,1.0,,5.0,0.0,,0.008,0.0,2.0,0.0,3.288,48.0,5.023,5.005,0.0,,4469048.0,0.0,0.0
4,1711369850220,2024-03-25 18:00:50.220,25.0,0.0,,,0.0,,,,,,,,,,,,0.0,0.0,0.0,0.0,0.0,1.0,0.0,0.0,0.0,0.0,5.2,0.0,0.0,0.0,,,,,,0.0,,,,0.0,,,,1.0,,20.0,6,,,,,,,,,,,0.0,,,,,1.0,,,273.0,,,0.0,2.0,0.0,0.0,,,,,0.0,,,,1711369850220,,,,,,,,,,,,,0.0,,,,51928,,,,,,,138.0,,,,,,,2.0,,,,,,,0.0,105.0,1.0,,,,0.0,,78.0,,0.0,,,,2880.0,,,1.0,,,,,6,,0.0,,0.0,,0.0,,,0.0,,,,,,,,,,0.0,,,
4,1711369827671,2024-03-25 18:00:27.671,91.6667,0.0,-0.379,52.309,0.0,54.0,1.0,0.0,0.0,0.0,0.0,0.0,0.0,0.0,0.0,1.0,0.0,0.0,0.0,0.0,0.0,1.0,0.0,0.0,0.0,0.0,5.2,0.0,0.0,0.0,0.0,1235273.0,2.0,3.269,61.0,0.0,0.0,47.0,47.0,0.0,0.0,3.269,16.0,,0.0,,22,0.0,0.0,3.263,3.27,0.0,3.269,0.0,47.0,0.0,47.0,0.0,3.271,62.0,0.0,0.0,1.0,0.0,0.0,273.0,,45.0,,2.0,0.0,,0.0,3.27,5718322.0,47.0,0.0,0.0,1.0,0.0,1711369827671,255000.0,,12337.0,3.269,0.0,0.0,0.0,0.0,1.0,0.0,12854.0,1289.084,0.0,3.263,3.268,3354936.0,44117,3.269,0.0,7.0,3.272,3.269,0.0,149.0,3.312,0.0,5423.99,21.479,37.2,,,0.0,48.0,0.0,99.0,45.0,3.272,0.0,,1.0,15.0,,12.173,0.0,41.0,78.0,0.0,,45.0,3.271,60000.0,,3.27,65.0,,0.0,3.27,4272433.0,0.0,22,1.0,0.0,3.27,,1.0,0.0,1.0,0.0,0.0,0.009,0.0,2.0,0.0,3.269,48.0,5.053,5.044,0.0,0.0,4469048.0,0.0,0.0
4,1711369806382,2024-03-25 18:00:06.382,91.6667,1272.0,-104.374,49.774,96.0,54.0,1.0,0.0,0.0,0.0,0.0,0.0,0.0,0.0,0.0,1.0,0.0,0.0,0.0,0.0,0.0,0.0,0.0,0.0,0.0,0.0,4.8,105.1,197.6,1.6,0.0,1235158.0,2.0,3.113,60.0,0.0,0.0,47.0,46.0,0.0,0.0,3.11,8.0,,0.0,,27,0.0,0.0,3.08,3.118,0.0,3.08,0.0,47.0,0.0,47.0,0.0,3.118,61.0,0.0,0.0,1.0,0.0,0.0,256.0,,45.0,,2.0,0.0,,0.0,3.114,5718322.0,47.0,0.0,0.0,1.0,0.0,1711369806382,255000.0,,12337.0,3.114,0.0,0.0,0.0,0.0,4.0,0.0,12854.0,1289.084,0.0,3.08,3.114,3354936.0,36752,3.098,0.0,7.0,3.119,3.127,0.0,147.0,3.31,0.0,5453.03,21.594,37.2,,,0.0,48.0,0.0,99.0,45.0,3.127,0.0,,1.0,9.0,,12.182,0.0,41.0,77.0,0.0,,45.0,3.12,60000.0,,3.117,69.0,,0.0,3.117,4272433.0,0.0,22,1.0,0.0,3.115,,1.0,0.0,1.0,0.0,0.0,0.047,0.0,2.0,0.0,3.11,48.0,5.035,5.04,0.0,0.0,4469048.0,0.0,0.0
4,1711369784900,2024-03-25 17:59:44.900,20.8333,1142.0,,,100.0,,,,,,,,,,,,0.0,0.0,0.0,0.0,0.0,0.0,0.0,0.0,0.0,0.0,4.8,104.8,217.7,1.5,,,,,,0.0,,,,0.0,,,,,,,10,,,,,,,,,,,0.0,,,,,1.0,,,256.0,,,,2.0,0.0,,,,,,0.0,,,,1711369784900,,,,,,,,,,,,,0.0,,,,29290,,,,,,,130.0,,,,,,,,,,,,,,0.0,,1.0,,,,0.0,,71.0,,,,,,,,,,,,,,5,,0.0,,,,0.0,,,0.0,,,,,,,,,,0.0,,,
4,1711369763540,2024-03-25 17:59:23.540,95.8333,984.0,1.149,52.345,0.0,56.0,1.0,0.0,0.0,0.0,0.0,0.0,0.0,0.0,0.0,1.0,0.0,0.0,0.0,0.0,0.0,0.0,0.0,0.0,0.0,0.0,5.2,6551.6,5.4,0.7,0.0,1234360.0,2.0,3.272,59.0,0.0,0.0,47.0,46.0,0.0,0.0,3.271,16.0,1.0,0.0,20.0,28,0.0,0.0,3.266,3.272,0.0,3.272,0.0,46.0,0.0,47.0,0.0,3.272,61.0,0.0,0.0,1.0,0.0,0.0,256.0,,45.0,0.0,2.0,0.0,0.0,0.0,3.272,5718322.0,47.0,0.0,0.0,1.0,0.0,1711369763540,255000.0,,12337.0,3.271,0.0,0.0,0.0,0.0,4.0,0.0,12854.0,1289.084,0.0,3.266,3.27,3354936.0,21895,3.271,0.0,7.0,3.274,3.271,0.0,136.0,3.31,0.0,5654.54,22.392,37.2,,2.0,0.0,48.0,0.0,99.0,45.0,3.274,0.0,105.0,1.0,15.0,,12.182,0.0,41.0,70.0,0.0,0.0,45.0,3.273,60000.0,2880.0,3.273,63.0,1.0,0.0,3.272,4272433.0,0.0,23,1.0,0.0,3.273,0.0,1.0,0.0,1.0,0.0,0.0,0.008,0.0,2.0,0.0,3.271,48.0,5.035,5.04,0.0,0.0,4469048.0,0.0,0.0
4,1711369742120,2024-03-25 17:59:02.120,91.6667,1345.0,-103.07,49.898,86.0,56.0,1.0,0.0,0.0,0.0,0.0,0.0,0.0,0.0,0.0,1.0,0.0,0.0,0.0,0.0,0.0,0.0,0.0,0.0,0.0,0.0,4.8,102.9,192.7,1.6,0.0,1234208.0,2.0,3.12,59.0,0.0,0.0,47.0,46.0,0.0,0.0,3.118,16.0,,0.0,,27,0.0,0.0,3.088,3.126,0.0,3.089,0.0,46.0,0.0,47.0,0.0,3.125,60.0,0.0,0.0,1.0,0.0,0.0,256.0,,45.0,,2.0,0.0,,0.0,3.124,5718322.0,47.0,0.0,0.0,1.0,0.0,1711369742120,255000.0,,12337.0,3.124,0.0,0.0,0.0,0.0,4.0,0.0,12854.0,1289.084,0.0,3.088,3.122,3354936.0,14467,3.107,0.0,4.0,3.129,3.137,0.0,132.0,3.312,0.0,5692.92,22.544,37.2,,,0.0,47.0,0.0,99.0,45.0,3.137,0.0,,1.0,9.0,,12.271,0.0,41.0,69.0,0.0,,45.0,3.124,63000.0,,3.124,66.0,,0.0,3.12,4272433.0,0.0,22,1.0,0.0,3.122,,1.0,0.0,1.0,0.0,0.0,0.049,0.0,2.0,0.0,3.117,47.0,5.055,5.042,0.0,0.0,4469048.0,0.0,0.0
4,1711369720480,2024-03-25 17:58:40.480,25.0,1639.0,,,100.0,,,,,,,,,,,,0.0,0.0,0.0,0.0,0.0,0.0,0.0,0.0,0.0,0.0,4.8,83.6,139.4,1.7,,,,,,0.0,,,,0.0,,,,1.0,,20.0,11,,,,,,,,,,,0.0,,,,,1.0,,,256.0,,,0.0,2.0,0.0,0.0,,,,,0.0,,,,1711369720480,,,,,,,,,,,,,0.0,,,,6947,,,,,,,122.0,,,,,,,2.0,,,,,,,0.0,105.0,1.0,,,,0.0,,65.0,,0.0,,,,2880.0,,,1.0,,,,,6,,0.0,,0.0,,0.0,,,0.0,,,,,,,,,,0.0,,,
4,1711369699160,2024-03-25 17:58:19.160,91.6667,1599.0,-82.273,50.485,73.0,59.0,1.0,0.0,0.0,0.0,0.0,0.0,0.0,0.0,0.0,1.0,0.0,0.0,0.0,0.0,0.0,0.0,0.0,0.0,0.0,0.0,4.9,85.6,140.4,1.7,0.0,1233218.0,2.0,3.158,57.0,0.0,0.0,47.0,46.0,0.0,0.0,3.155,16.0,,0.0,,22,0.0,0.0,3.129,3.16,0.0,3.131,0.0,46.0,0.0,47.0,0.0,3.161,59.0,0.0,0.0,1.0,0.0,0.0,256.0,,45.0,,2.0,0.0,,0.0,3.155,5718322.0,47.0,0.0,0.0,1.0,0.0,1711369699160,255000.0,,12337.0,3.158,0.0,0.0,0.0,0.0,4.0,0.0,12854.0,1289.084,0.0,3.129,3.156,3354936.0,65088,3.146,0.0,4.0,3.163,3.171,0.0,117.0,3.311,0.0,5942.92,23.534,37.2,,,0.0,47.0,0.0,99.0,45.0,3.171,0.0,,1.0,9.0,,12.182,0.0,41.0,62.0,0.0,,45.0,3.161,63000.0,,3.16,62.0,,0.0,3.16,4272433.0,0.0,22,1.0,0.0,3.162,,1.0,0.0,1.0,0.0,0.0,0.042,0.0,2.0,0.0,3.154,47.0,5.043,5.042,0.0,0.0,4469048.0,0.0,0.0
4,1711369677640,2024-03-25 17:57:57.640,91.6667,1394.0,-25.169,51.726,21.0,60.0,1.0,0.0,0.0,0.0,0.0,0.0,0.0,0.0,0.0,1.0,0.0,0.0,0.0,0.0,0.0,0.0,0.0,0.0,0.0,0.0,5.1,24.6,46.4,1.3,0.0,1232912.0,2.0,3.232,57.0,0.0,0.0,46.0,46.0,0.0,0.0,3.232,16.0,,0.0,,27,0.0,0.0,3.221,3.233,0.0,3.228,0.0,46.0,0.0,47.0,0.0,3.234,59.0,0.0,0.0,1.0,0.0,0.0,256.0,,45.0,,2.0,0.0,,0.0,3.235,5718322.0,47.0,0.0,0.0,1.0,0.0,1711369677640,255000.0,,12337.0,3.232,0.0,0.0,0.0,0.0,4.0,0.0,12854.0,1289.084,0.0,3.221,3.234,3354936.0,57629,3.229,0.0,4.0,3.238,3.237,0.0,116.0,3.309,0.0,6020.2,23.84,37.2,,,0.0,47.0,0.0,99.0,45.0,3.238,0.0,,1.0,15.0,,12.178,0.0,41.0,62.0,0.0,,45.0,3.236,63096.0,,3.236,62.0,,0.0,3.235,4272433.0,0.0,22,1.0,0.0,3.232,,1.0,0.0,1.0,0.0,0.0,0.017,0.0,2.0,0.0,3.234,47.0,5.05,5.04,0.0,0.0,4469048.0,0.0,0.0
4,1711369654080,2024-03-25 17:57:34.080,95.8333,661.0,-61.015,51.045,69.0,60.0,1.0,0.0,0.0,0.0,0.0,0.0,0.0,0.0,0.0,1.0,0.0,0.0,0.0,0.0,0.0,0.0,0.0,0.0,0.0,0.0,5.0,59.9,179.9,0.9,0.0,1232621.0,2.0,3.192,57.0,0.0,0.0,46.0,46.0,0.0,0.0,3.19,16.0,1.0,0.0,20.0,28,0.0,0.0,3.171,3.194,0.0,3.172,0.0,46.0,0.0,47.0,0.0,3.194,58.0,0.0,0.0,1.0,0.0,0.0,256.0,,45.0,0.0,2.0,0.0,0.0,0.0,3.191,5718322.0,47.0,0.0,0.0,1.0,0.0,1711369654080,255000.0,,12337.0,3.193,0.0,0.0,0.0,0.0,4.0,0.0,12854.0,1289.084,0.0,3.171,3.191,3354936.0,49439,3.183,0.0,4.0,3.196,3.2,0.0,105.0,3.294,0.0,6093.68,24.131,37.2,,2.0,0.0,47.0,0.0,99.0,45.0,3.2,0.0,105.0,1.0,9.0,,12.19,0.0,41.0,58.0,0.0,0.0,45.0,3.196,63449.0,2880.0,3.195,62.0,1.0,0.0,3.194,4272433.0,0.0,23,1.0,0.0,3.193,0.0,1.0,0.0,1.0,0.0,0.0,0.029,0.0,2.0,0.0,3.19,47.0,5.025,5.005,0.0,0.0,4469048.0,0.0,0.0
4,1711369632291,2024-03-25 17:57:12.291,95.8333,2672.0,-102.465,50.073,93.0,61.0,1.0,0.0,0.0,0.0,0.0,0.0,0.0,0.0,0.0,1.0,0.0,0.0,0.0,0.0,0.0,0.0,0.0,0.0,0.0,0.0,4.8,104.4,116.1,2.6,0.0,1232222.0,2.0,3.13,56.0,0.0,0.0,46.0,46.0,0.0,0.0,3.129,8.0,1.0,0.0,20.0,28,0.0,0.0,3.1,3.135,0.0,3.1,0.0,46.0,0.0,47.0,0.0,3.136,57.0,0.0,0.0,1.0,0.0,0.0,256.0,,44.0,0.0,2.0,0.0,0.0,0.0,3.132,5718322.0,46.0,0.0,0.0,1.0,0.0,1711369632291,255000.0,,12337.0,3.133,0.0,0.0,0.0,0.0,4.0,0.0,12854.0,1289.084,0.0,3.102,3.13,3354936.0,41930,3.12,0.0,7.0,3.138,3.146,0.0,102.0,3.31,0.0,6194.44,24.53,37.2,,2.0,0.0,47.0,0.0,99.0,44.0,3.146,0.0,105.0,1.0,9.0,,12.19,0.0,41.0,56.0,0.0,0.0,44.0,3.138,63933.0,2880.0,3.135,63.0,1.0,0.0,3.135,4272433.0,0.0,23,1.0,0.0,3.134,0.0,1.0,0.0,1.0,0.0,0.0,0.046,0.0,2.0,0.0,3.129,47.0,5.033,5.044,0.0,0.0,4469048.0,0.0,0.0
4,1711369615401,2024-03-25 17:56:55.401,91.6667,2691.0,-100.001,50.281,82.0,63.0,1.0,0.0,0.0,0.0,0.0,0.0,0.0,0.0,0.0,1.0,0.0,0.0,0.0,0.0,0.0,0.0,0.0,0.0,0.0,0.0,4.8,105.0,118.8,2.6,0.0,1231750.0,2.0,3.146,55.0,0.0,0.0,46.0,46.0,0.0,0.0,3.142,8.0,,0.0,,27,0.0,0.0,3.108,3.148,0.0,3.108,0.0,46.0,0.0,47.0,0.0,3.149,57.0,0.0,0.0,1.0,0.0,0.0,256.0,,44.0,,2.0,0.0,,0.0,3.147,5718322.0,46.0,0.0,0.0,1.0,0.0,1711369615401,255000.0,,12337.0,3.147,0.0,0.0,0.0,0.0,4.0,0.0,12854.0,1289.084,0.0,3.113,3.147,3354936.0,36065,3.129,0.0,7.0,3.154,3.162,0.0,99.0,3.293,0.0,6313.63,25.002,37.2,,,0.0,47.0,0.0,99.0,44.0,3.162,0.0,,1.0,9.0,,12.186,0.0,41.0,55.0,0.0,,44.0,3.149,64505.0,,3.148,59.0,,0.0,3.148,4272433.0,0.0,22,1.0,0.0,3.146,,1.0,0.0,1.0,0.0,0.0,0.054,0.0,2.0,0.0,3.14,47.0,5.025,5.005,0.0,0.0,4469048.0,0.0,0.0